Jaz Data File
++++++++++++++++++++++++++++++++++++
Date: Mon Apr 04 15:36:00 2011
User: jaz
Dark Spectrum Present: Yes
Reference Spectrum Present: Yes
Processed Spectrum Present: Yes
Spectrometers: JAZA1276
Integration Time (usec): 30000 (JAZA1276)
Spectra Averaged: 5 (JAZA1276)
Boxcar Smoothing: 0 (JAZA1276)
Correct for Electrical Dark: No (JAZA1276)
Strobe/Lamp Enabled: Yes (JAZA1276)
Correct for Detector Non-linearity: No (JAZA1276)
Correct for Stray Light: No (JAZA1276)
Number of Pixels in Processed Spectrum: 2048
>>>>>Begin Processed Spectral Data<<<<<
W	D	R	S	P
340.302521	0.000000	0.000000	0.000000	0.000000
340.678955	0.000000	0.000000	0.000000	0.000000
341.055359	911.028809	883.338013	713.962280	711.667969
341.431732	913.797852	910.105774	738.884094	4737.542969
341.808075	939.642700	959.026245	729.192261	-1085.717041
342.184387	950.719055	920.259094	752.729431	649.999573
342.560608	956.718750	949.334473	775.343628	2456.233887
342.936859	956.257202	948.411438	770.266968	2370.581543
343.313049	972.871704	948.411438	788.266052	754.716431
343.689240	974.256226	954.411133	804.880554	853.488953
344.065338	957.180298	961.333862	787.343079	-4088.951172
344.441437	971.025696	985.332642	778.574219	-1345.161133
344.817505	956.257141	972.410156	788.727600	-1037.140991
345.193512	941.950195	969.641113	794.265747	-533.331726
345.569489	974.256226	973.794739	779.958862	42102.472656
345.945435	944.257813	953.488098	777.189697	-1809.999390
346.321381	958.103210	938.719604	778.574280	926.189514
346.697266	987.640259	959.487793	765.190430	790.161072
347.073090	950.719055	963.179871	760.113647	-1529.638306
347.448883	972.871704	971.025696	759.190674	11575.301758
347.824646	949.334473	957.641785	742.114624	-2494.427246
348.200409	944.719360	929.489380	786.881531	1036.362671
348.576080	954.872681	967.333618	760.113647	-1562.956543
348.951782	967.795044	933.181458	781.343323	538.666260
349.327423	946.103882	953.026550	779.035767	-2413.348389
349.703033	934.104492	969.179565	749.960327	-525.000061
350.078583	947.026855	998.716492	753.652527	-374.106567
350.454071	912.874878	978.409973	742.576172	-259.858795
350.829590	935.489075	998.255005	765.651855	-270.588226
351.205048	921.182129	965.026001	751.806458	-386.315491
351.580475	900.875488	988.101685	774.420654	-144.973465
351.955872	949.334473	968.718079	751.806458	-1019.046814
352.331207	919.797546	965.487488	766.113403	-336.363190
352.706543	924.874207	989.024719	770.266968	-241.007019
353.081787	927.181824	955.334167	760.575195	-591.803772
353.457062	934.566040	992.716797	758.729187	-302.381012
353.832245	921.182129	970.102539	746.729797	-356.604401
354.207458	925.335754	997.793457	784.112427	-194.904510
354.582581	903.644531	951.180542	772.574585	-275.727692
354.957672	911.951843	957.180176	733.345886	-394.898376
355.332733	924.412781	998.716492	750.883423	-233.540634
355.707764	935.950562	971.487122	750.421936	-522.078186
356.082764	948.411438	978.409851	767.497925	-603.076965
356.457733	898.567993	964.564453	758.267700	-212.587601
356.832642	933.643066	968.256653	779.497375	-445.332916
357.207550	934.104492	987.640137	762.421265	-320.689575
357.582397	911.028809	954.872681	733.345947	-405.262695
357.957214	923.028137	951.642090	753.652527	-591.933655
358.332001	933.181458	956.257141	762.882813	-738.000427
358.706757	904.567688	956.257202	771.190063	-258.036133
359.081451	917.028503	976.563782	795.650269	-203.876160
359.456146	891.645203	966.871948	742.576172	-198.159622
359.830780	931.796875	979.794434	750.883423	-376.922211
360.205353	914.259460	981.640503	761.959778	-226.027496
360.579956	933.181519	971.487122	774.882202	-413.253693
360.954498	903.644653	971.025696	752.729492	-223.972733
361.329010	927.181824	934.104492	750.421936	-2553.349121
361.703430	941.950317	967.795105	743.037720	-769.643005
362.077881	945.642395	985.332642	765.651855	-453.488098
362.452271	923.489624	977.025391	761.498291	-302.585236
362.826630	917.490051	944.257813	744.883728	-644.829163
363.200928	930.412476	969.179565	740.730103	-489.287109
363.575226	937.796692	988.101685	755.037048	-363.303192
363.949463	931.796997	983.948059	764.267273	-321.239319
364.323700	927.181824	969.179565	764.267334	-387.912506
364.697845	915.643921	982.563477	715.808411	-298.620483
365.071991	934.104492	981.640503	750.883423	-385.436371
365.446106	911.490356	977.025269	767.497925	-219.718658
365.820190	928.104858	998.716614	760.575195	-237.254639
366.194214	903.183105	983.486511	759.652222	-178.735733
366.568207	923.489624	971.487183	750.421936	-360.576019
366.942200	932.258423	974.256226	728.269226	-485.713989
367.316101	913.336426	967.795105	749.960449	-299.999878
367.690002	941.950195	985.794128	761.498169	-411.578094
368.063843	916.567017	966.872070	747.191284	-336.697235
368.437683	934.566101	962.256836	751.344910	-661.669678
368.811493	924.874207	989.486206	759.652161	-255.714188
369.185181	923.489624	982.101929	758.729126	-281.102234
369.558929	947.949890	977.025269	755.498596	-661.904663
369.932587	927.181824	980.255981	772.113098	-292.173706
370.306213	915.643921	996.408997	752.729553	-201.713882
370.679810	924.874207	998.716492	735.653442	-256.249878
371.053406	899.952515	952.565125	723.654053	-335.087860
371.426910	927.643372	991.332214	779.035767	-233.333817
371.800415	923.028137	975.179321	776.728210	-280.530396
372.173859	918.874634	962.256836	753.191040	-381.916046
372.547302	944.719360	975.179321	744.422241	-657.575073
372.920685	946.103882	996.870483	770.267090	-346.363129
373.294037	902.721558	981.178894	741.653198	-205.294205
373.667358	936.412109	1000.562622	755.036987	-282.733704
374.040619	905.029175	986.717163	755.960083	-182.485931
374.413879	913.336304	948.872925	764.267334	-419.479858
374.787048	898.106445	974.717773	773.497620	-162.650650
375.160217	898.567993	971.025696	745.806763	-210.828140
375.533386	1061.943970	1163.015381	888.414673	-171.689789
375.906494	909.182739	984.871094	756.883179	-201.219284
376.279510	897.644897	931.335449	785.035461	-334.246338
376.652527	900.875488	1001.947083	777.651245	-121.917778
377.025543	898.567871	967.333496	755.960083	-207.382370
377.398499	935.027527	993.178345	793.342712	-243.650589
377.771393	934.104614	988.563171	790.112061	-264.407593
378.144257	920.259094	985.794128	758.729126	-246.478806
378.517120	914.720886	974.717773	758.267700	-260.768829
378.889893	939.181152	979.332886	747.652771	-477.011475
379.262695	910.567261	973.794739	763.805786	-232.116608
379.635406	938.258118	954.872681	732.422852	-1238.884644
380.008148	911.490356	964.564453	746.729797	-310.434967
380.380798	906.413696	978.871460	757.344604	-205.732391
380.753387	926.258789	1001.024048	771.651550	-206.790207
381.126007	920.259094	972.410278	760.575195	-306.194183
381.498566	918.413086	994.562866	747.652832	-224.242615
381.871063	926.720337	982.563477	773.959106	-273.554169
382.243530	901.337036	984.870972	758.729126	-170.718536
382.615997	898.567993	978.409851	743.037720	-194.797913
382.988403	911.490356	973.794739	761.036743	-241.481598
383.360779	924.874207	984.871094	772.574524	-253.845978
383.733093	920.720581	988.101685	773.959106	-217.808060
384.105408	945.642395	985.332642	756.421570	-476.743896
384.477631	927.181824	989.486206	765.190369	-260.000092
384.849854	905.490601	1012.561890	758.729187	-137.068878
385.222046	946.103882	975.640808	769.343933	-598.437195
385.594208	917.951477	972.871704	740.730103	-322.688721
385.966339	928.104858	960.872375	766.574890	-492.957611
386.338379	931.335449	995.024414	753.190979	-279.710114
386.710419	907.336609	995.485962	765.190430	-161.256073
387.082428	910.567261	986.255676	756.883118	-203.048431
387.454407	931.335449	1000.562622	756.421570	-252.666504
387.826324	911.490417	982.563477	758.729126	-214.935577
388.198212	934.104492	963.179871	748.575867	-638.095337
388.570068	920.259155	1010.254272	757.806152	-180.513123
388.941895	928.104858	945.642395	751.806458	-1005.263184
389.313660	914.259399	1026.868896	751.344910	-144.672073
389.685425	916.105469	979.794434	760.113708	-244.927460
390.057129	932.720032	998.716492	767.497925	-250.349960
390.428802	923.028198	976.102356	768.421021	-291.304077
390.800415	931.796997	1009.331238	767.036438	-212.500381
391.172028	929.027832	990.870789	763.805847	-267.163788
391.543610	938.258179	996.870483	762.882813	-299.212555
391.915131	943.796265	1018.561523	762.882813	-241.975296
392.286621	926.720337	1002.408569	764.728882	-214.024628
392.658051	916.567017	997.331909	766.113403	-186.285904
393.029480	948.411438	981.178894	777.189758	-522.535767
393.400848	945.180847	989.947754	767.959412	-395.875977
393.772186	916.105469	974.256226	731.499817	-317.460449
394.143494	924.874207	976.102356	772.574585	-297.296753
394.514771	915.643921	996.408875	769.805542	-180.571365
394.885986	913.336304	979.794312	758.267700	-233.333206
395.257172	914.259399	977.025391	756.883118	-250.734955
395.628326	922.105164	979.794312	732.422852	-328.800690
395.999451	912.413269	1011.177368	758.729126	-155.607300
396.370544	904.106079	1005.177734	778.574219	-124.200859
396.741577	920.720581	1025.022827	754.575562	-159.291885
397.112579	946.103882	1020.407593	762.882751	-246.584091
397.483551	899.952454	997.793457	740.730103	-162.735809
397.854523	922.566711	989.486206	766.574890	-233.103699
398.225372	915.643921	999.639465	772.113098	-170.879089
398.596252	962.718384	1035.637695	795.188782	-229.746552
398.967072	902.259949	1041.637329	766.574829	-97.350891
399.337830	923.028198	1007.946899	744.422241	-210.325821
399.708588	907.798218	1007.485229	774.420593	-133.796387
400.079315	920.720581	1019.946167	770.728577	-151.162628
400.449982	940.104187	1016.254089	775.343689	-216.363373
400.820618	921.643677	995.024414	750.421936	-233.333359
401.191223	907.798218	1029.637939	784.573975	-101.136345
401.561768	905.952148	1028.714844	777.651245	-104.511314
401.932312	914.720886	1014.869507	766.574890	-147.926147
402.302795	928.566406	1030.099487	764.728821	-161.363754
402.673218	930.412415	1033.330078	764.728821	-160.986542
403.043671	929.950867	1018.561646	769.805542	-180.728943
403.414032	913.797974	1019.023132	792.419678	-115.351021
403.784332	916.567017	1011.177368	776.728210	-147.804977
404.154663	935.950562	1018.561646	776.728210	-192.737274
404.524933	886.568542	1014.869507	776.728149	-85.611511
404.895111	934.566040	1011.177368	770.266968	-214.457932
405.265320	931.335449	1025.484375	743.499207	-199.509705
405.635498	894.414246	1014.869446	749.960388	-119.923302
406.005615	927.643372	1051.790649	738.884033	-152.044693
406.375702	924.874207	1021.330688	752.267944	-178.947296
406.745697	921.643677	1046.252563	766.113403	-124.814751
407.115723	910.567261	1034.714600	774.420593	-109.665390
407.485687	943.796387	1066.559082	748.575806	-159.022720
407.855591	939.642700	1035.637573	778.574280	-167.788559
408.225494	915.643921	1081.327515	792.419739	-74.373192
408.595367	925.335754	1076.250732	766.574829	-105.198921
408.965179	934.566040	1092.403809	771.651550	-103.216415
409.334961	924.412720	1099.788086	762.421265	-92.368423
409.704681	923.951172	1091.942261	737.961060	-110.714272
410.074402	908.721313	1116.402588	747.652771	-77.555641
410.444031	920.259094	1106.249268	773.959167	-78.660027
410.813660	962.718384	1171.784180	794.727295	-80.353218
411.183258	924.874207	1145.939453	755.498596	-76.617928
411.552795	908.721191	1154.246704	710.731628	-80.639099
411.922302	917.028503	1202.705688	748.114380	-59.127621
412.291809	921.182129	1225.781494	785.496948	-44.545456
412.661224	902.721558	1228.088989	793.342712	-33.617023
413.030640	928.104858	1252.087646	779.035767	-46.011425
413.399994	911.951843	1261.779541	783.189453	-36.807373
413.769318	947.950012	1261.779541	791.035095	-50.000050
414.138611	939.642700	1323.160889	768.882446	-44.524681
414.507874	926.720337	1349.928589	754.114075	-40.785183
414.877075	907.336731	1343.929077	766.113403	-32.346725
415.246277	925.335754	1371.619873	778.112793	-32.988617
415.615356	931.335449	1388.695923	760.575256	-37.336018
415.984497	923.489746	1389.157471	759.190613	-35.282482
416.353516	932.719910	1421.001831	748.114319	-37.807175
416.722565	919.336060	1445.923584	773.959106	-27.607367
417.091553	917.951538	1479.614136	764.728882	-27.280195
417.460510	960.410767	1527.611572	774.420654	-32.790874
417.829407	940.565735	1480.998779	746.729797	-35.866779
418.198273	913.797852	1517.919678	761.959778	-25.133684
418.567108	888.876160	1563.148071	743.499207	-21.560583
418.935913	936.873535	1536.841797	735.653442	-33.538456
419.304657	945.180847	1591.300537	742.576111	-31.357153
419.673370	921.643677	1583.454834	770.728516	-22.803356
420.042053	892.568237	1577.455200	775.805237	-17.048508
420.410706	909.644226	1601.453857	755.960083	-22.214802
420.779327	923.489624	1641.605713	783.189331	-19.537271
421.147858	935.950562	1647.605469	770.266968	-23.281452
421.516388	940.565735	1697.910156	786.881531	-20.292511
421.884918	927.181824	1685.449585	797.496338	-17.102861
422.253357	924.412720	1666.527344	748.575806	-23.694036
422.621765	908.721313	1714.063232	777.189819	-16.332378
422.990143	902.721558	1744.984741	785.958496	-13.863014
423.358490	940.104187	1707.602173	757.344604	-23.812386
423.726807	945.180847	1746.830811	783.189453	-20.207247
424.095062	905.490601	1784.213501	763.805847	-16.123940
424.463287	916.567017	1804.520142	787.343079	-14.553014
424.831482	911.951843	1803.135498	741.653198	-19.109264
425.199585	928.104858	1814.673462	788.727600	-15.720979
425.567719	903.644653	1859.440186	749.498901	-16.127481
425.935822	929.489380	1848.364014	785.035522	-15.720737
426.303833	931.335449	1891.746338	741.653076	-19.750128
426.671875	928.104797	1857.594360	756.421631	-18.470694
427.039795	896.721863	1900.515015	762.421265	-13.379310
427.407715	955.334167	1948.051025	766.574890	-19.014412
427.775604	932.258484	1952.204712	774.882141	-15.429867
428.143433	954.872681	1961.434937	754.575500	-19.899136
428.511230	923.489746	1971.126709	784.573914	-13.259921
428.879028	908.721191	2000.663696	770.728516	-12.637358
429.246735	919.797546	2014.970459	764.267334	-14.201430
429.614410	935.027527	2007.125000	755.037048	-16.788631
429.982056	929.950867	1994.663818	755.498535	-16.384918
430.349701	942.411743	2032.969482	750.883423	-17.562420
430.717255	920.720581	2074.044434	767.497925	-13.285311
431.084808	909.644348	2115.580566	750.883423	-13.164951
431.452301	944.719360	2141.886963	781.804871	-13.608328
431.819794	911.490356	2153.886230	769.343933	-11.441315
432.187195	932.258423	2152.040527	753.652527	-14.642443
432.554565	922.566711	2182.038574	780.420349	-11.286187
432.921906	940.104187	2220.344238	758.267700	-14.203313
433.289246	931.796997	2254.034668	758.729126	-13.089014
433.656464	905.029175	2281.264160	765.190308	-10.160974
434.023712	925.335754	2289.109863	749.960388	-12.859561
434.390900	899.952454	2261.419189	768.882507	-9.627113
434.758057	922.566589	2291.417480	763.805847	-11.598104
435.125183	938.719604	2319.569824	786.881531	-10.995984
435.492249	922.566711	2377.720459	766.574890	-10.719954
435.859283	928.566284	2345.414551	784.112427	-10.195436
436.226318	916.567017	2374.489746	766.574890	-10.288071
436.593231	927.181824	2410.949707	729.192261	-13.343702
436.960144	922.105164	2420.641357	754.575562	-11.179550
437.327057	902.260071	2470.946533	779.497314	-7.825831
437.693909	936.412109	2503.714111	748.575867	-11.984687
438.060730	944.257813	2447.870605	761.498230	-12.154697
438.427429	941.488647	2470.484863	741.191711	-13.099897
438.794189	927.643372	2506.482910	779.035767	-9.412457
439.160889	919.797546	2498.175781	752.267944	-10.614035
439.527527	941.488770	2517.097656	764.267395	-11.247803
439.894135	914.259399	2558.172607	768.882507	-8.843344
440.260712	913.336304	2571.094971	776.266663	-8.268372
440.627258	949.334473	2580.786621	764.267334	-11.343706
440.993774	919.797668	2534.635498	765.651855	-9.545590
441.360199	920.259094	2521.251465	751.344910	-10.550592
441.726624	913.797852	2689.704346	797.034790	-6.574843
442.092987	937.796692	2613.092773	783.189392	-9.228655
442.459351	908.259766	2671.705078	750.883423	-8.924368
442.825653	951.180542	2666.628418	769.805542	-10.573041
443.191925	928.104797	2725.702148	730.576843	-10.988442
443.558136	899.029480	2703.549561	750.883423	-8.209721
443.924316	907.336731	2703.549561	779.497192	-7.117171
444.290436	919.797668	2779.699463	773.959106	-7.841197
444.656586	929.950867	2817.543457	810.418762	-6.332516
445.022614	930.412415	2784.314453	757.806152	-9.310431
445.388641	923.028137	2794.929199	775.343689	-7.889543
445.754639	918.874634	2872.925293	747.191284	-8.786023
446.120605	918.874512	2872.925293	759.652222	-8.148319
446.486511	915.182434	2943.536621	765.190308	-7.394770
446.852386	916.567017	2925.076416	731.499878	-9.214153
447.218231	930.412415	2994.303467	785.496948	-7.021469
447.584015	926.258789	2965.689453	772.113037	-7.558274
447.949738	926.258789	2945.382813	744.883728	-8.982859
448.315460	922.105164	2977.688965	749.960449	-8.374493
448.681152	894.414246	2982.765625	777.189758	-5.613255
449.046814	941.488770	3126.757813	759.190674	-8.342135
449.412415	943.334839	3180.293457	778.574341	-7.365380
449.777985	941.488770	3130.449951	757.344604	-8.412399
450.143494	934.566040	3233.367676	749.960388	-8.030517
450.509003	917.028503	3228.752441	782.727905	-5.809543
450.874420	917.951477	3149.372314	742.114685	-7.880037
451.239838	908.721191	3232.444824	784.112427	-5.362461
451.605194	932.719910	3311.824951	810.880249	-5.121239
451.970520	943.796265	3277.673096	766.574890	-7.593432
452.335815	929.489380	3300.748779	756.421509	-7.298564
452.701050	927.643372	3251.828125	772.113037	-6.691823
453.066254	942.873352	3309.979248	755.498535	-7.915777
453.431427	962.718384	3338.131348	823.341125	-5.867496
453.796539	903.183105	3295.210449	775.343628	-5.344398
454.161652	939.642700	3406.435547	758.729126	-7.333959
454.526703	928.566284	3386.590576	764.728882	-6.665410
454.891724	932.719910	3335.362549	754.575562	-7.414517
455.256714	953.488098	3364.899170	755.498596	-8.210525
455.621613	925.797241	3390.282715	742.576172	-7.434455
455.986542	939.642700	3555.966309	737.961060	-7.708589
456.351349	914.259460	3572.580566	770.266968	-5.416670
456.716187	913.797974	3527.813965	770.266968	-5.490823
457.080933	927.181824	3463.663330	784.573914	-5.622273
457.445709	921.182129	3445.202393	760.113647	-6.381426
457.810394	913.797974	3433.203613	761.959717	-6.026749
458.175049	938.719604	3543.043701	753.652466	-7.106148
458.539673	926.258789	3522.275879	760.113647	-6.400002
458.904266	939.642700	3571.657715	755.036987	-7.013855
459.268768	900.875488	3602.578857	761.959778	-5.141782
459.633270	928.566406	3634.885254	767.959473	-5.934516
459.997742	941.488770	3625.654785	756.883118	-6.877580
460.362152	940.565735	3640.884766	737.038025	-7.537173
460.726563	915.643921	3656.576172	791.496643	-4.529382
461.090881	928.566406	3676.882813	768.882507	-5.810245
461.455200	916.567017	3727.187988	736.576477	-6.403942
461.819458	913.336426	3761.801514	773.497620	-4.909269
462.183655	924.874207	3751.186768	752.729492	-6.090788
462.547852	942.873230	3783.953857	769.344055	-6.107858
462.912018	926.720337	3772.877686	767.497925	-5.594295
463.276123	927.181824	3776.108643	796.111816	-4.600680
463.640198	903.183105	3825.951660	773.036133	-4.452866
464.004181	918.874512	3907.178223	760.113708	-5.312740
464.368195	916.105469	3965.329346	740.730103	-5.751475
464.732117	943.796387	3899.332764	780.881836	-5.512182
465.096039	923.489746	3970.867188	754.575562	-5.542936
465.459900	904.106140	3897.486816	742.576172	-5.396239
465.823730	916.105469	4010.557861	786.881470	-4.175989
466.187531	898.106445	3956.098877	743.037659	-5.070934
466.551270	944.257813	3975.020996	763.344299	-5.969240
466.914948	939.642700	4033.171875	760.575256	-5.788452
467.278656	918.413086	4127.320801	777.189758	-4.400978
467.642242	941.488770	4098.706543	770.728577	-5.408566
468.005829	924.874207	4232.545898	790.112122	-4.074228
468.369385	909.182739	4265.313477	785.958496	-3.671616
